PE UV       SUBTECH     SPECTRUM    ASCII       PEDS        4.00        
   -1
SN274_TiO2SiO2_onglass_glassside_8deg.asc
19/09/05
11:19:54.00
19/09/05
11:19:54.00
Analyst
SN274_TiO2SiO2_onglass_glassside_8deg
250.000000
1
Lambda 950
950L1302261
PerkinElmer UV WinLab 6.0.4.0738 / 1.61.00 Lambda 900

0
0
3350/20 889.8/5
0
0
UV/VIS
1
1
1
RBeamAtt,SBeamAtt,universal reflectance
0
0
0
0
Program
Program
3350/20 889.8/5
3350/1 889.8/1
3350/1 889.8/1
0
3350/8 3000/6 2585/4 2480/2 1810/1
 
 
 
0
 
889.8
319.2
889.8
Front
39
 
3350/S:100 3350/R:100
 
0
0
0
 
0
 
 
 
0
 
 
0
0
8.0
5.00
5.00
False
False
202L1303013
 
0
0


0
0
#HDR
-1
-1
#GR
nm
%R
1.0
0.0
1200.000000
-2.000000
476
8
85.939845
2.980885
#DATA
1200.000000	15.589733
1198.000000	15.555123
1196.000000	15.520559
1194.000000	15.477598
1192.000000	15.438398
1190.000000	15.397920
1188.000000	15.353266
1186.000000	15.299302
1184.000000	15.242200
1182.000000	15.188039
1180.000000	15.128733
1178.000000	15.063751
1176.000000	15.003558
1174.000000	14.931990
1172.000000	14.860711
1170.000000	14.788193
1168.000000	14.711990
1166.000000	14.636512
1164.000000	14.551727
1162.000000	14.457503
1160.000000	14.379579
1158.000000	14.275155
1156.000000	14.187528
1154.000000	14.087839
1152.000000	13.992461
1150.000000	13.888004
1148.000000	13.782642
1146.000000	13.669189
1144.000000	13.562470
1142.000000	13.447115
1140.000000	13.339819
1138.000000	13.210999
1136.000000	13.093032
1134.000000	12.972757
1132.000000	12.848907
1130.000000	12.718517
1128.000000	12.589724
1126.000000	12.458270
1124.000000	12.318169
1122.000000	12.175059
1120.000000	12.045229
1118.000000	11.906317
1116.000000	11.769784
1114.000000	11.623457
1112.000000	11.491408
1110.000000	11.341250
1108.000000	11.197489
1106.000000	11.058179
1104.000000	10.922436
1102.000000	10.770121
1100.000000	10.627118
1098.000000	10.480134
1096.000000	10.340195
1094.000000	10.204957
1092.000000	10.050287
1090.000000	9.913772
1088.000000	9.765274
1086.000000	9.624100
1084.000000	9.480445
1082.000000	9.346048
1080.000000	9.210536
1078.000000	9.072954
1076.000000	8.942034
1074.000000	8.808119
1072.000000	8.682847
1070.000000	8.563271
1068.000000	8.443243
1066.000000	8.327980
1064.000000	8.216661
1062.000000	8.105681
1060.000000	8.000445
1058.000000	7.901409
1056.000000	7.813139
1054.000000	7.721967
1052.000000	7.636166
1050.000000	7.557298
1048.000000	7.489476
1046.000000	7.420591
1044.000000	7.356296
1042.000000	7.303722
1040.000000	7.257982
1038.000000	7.212637
1036.000000	7.187270
1034.000000	7.161683
1032.000000	7.143636
1030.000000	7.129856
1028.000000	7.132340
1026.000000	7.142431
1024.000000	7.153845
1022.000000	7.176335
1020.000000	7.211328
1018.000000	7.252474
1016.000000	7.298612
1014.000000	7.346958
1012.000000	7.411848
1010.000000	7.494729
1008.000000	7.572202
1006.000000	7.666428
1004.000000	7.767956
1002.000000	7.879842
1000.000000	7.991400
998.000000	8.126644
996.000000	8.268124
994.000000	8.406353
992.000000	8.560873
990.000000	8.726227
988.000000	8.898913
986.000000	9.071413
984.000000	9.254435
982.000000	9.438502
980.000000	9.632446
978.000000	9.840041
976.000000	10.055355
974.000000	10.276680
972.000000	10.509598
970.000000	10.726355
968.000000	10.957905
966.000000	11.202923
964.000000	11.447198
962.000000	11.685618
960.000000	11.930933
958.000000	12.190393
956.000000	12.436072
954.000000	12.691050
952.000000	12.964523
950.000000	13.240261
948.000000	13.477719
946.000000	13.743247
944.000000	14.020667
942.000000	14.257245
940.000000	14.508516
938.000000	14.775189
936.000000	15.031429
934.000000	15.293108
932.000000	15.537055
930.000000	15.768304
928.000000	16.018760
926.000000	16.248546
924.000000	16.492476
922.000000	16.734575
920.000000	16.951011
918.000000	17.156725
916.000000	17.365565
914.000000	17.576396
912.000000	17.748119
910.000000	17.909634
908.000000	18.099680
906.000000	18.244013
904.000000	18.401902
902.000000	18.550517
900.000000	18.706307
898.000000	18.835669
896.000000	18.939645
894.000000	19.060260
892.000000	19.168564
890.000000	19.253110
888.000000	20.054991
886.000000	20.105491
884.000000	20.142789
882.000000	20.160388
880.000000	20.157570
878.000000	20.154989
876.000000	20.135529
874.000000	20.094778
872.000000	20.035524
870.000000	19.971662
868.000000	19.881146
866.000000	19.779977
864.000000	19.652626
862.000000	19.519550
860.000000	19.376462
858.000000	19.200024
856.000000	19.009338
854.000000	18.810645
852.000000	18.588232
850.000000	18.344769
848.000000	18.089943
846.000000	17.819568
844.000000	17.519825
842.000000	17.226530
840.000000	16.907655
838.000000	16.565663
836.000000	16.210917
834.000000	15.848060
832.000000	15.468032
830.000000	15.080355
828.000000	14.664292
826.000000	14.244695
824.000000	13.818089
822.000000	13.386083
820.000000	12.941332
818.000000	12.481043
816.000000	12.028508
814.000000	11.566750
812.000000	11.112769
810.000000	10.648437
808.000000	10.177484
806.000000	9.721121
804.000000	9.272506
802.000000	8.829728
800.000000	8.399480
798.000000	7.981772
796.000000	7.582050
794.000000	7.201694
792.000000	6.847226
790.000000	6.515674
788.000000	6.209831
786.000000	5.937880
784.000000	5.696290
782.000000	5.496515
780.000000	5.332610
778.000000	5.207032
776.000000	5.126380
774.000000	5.091410
772.000000	5.101620
770.000000	5.160853
768.000000	5.266590
766.000000	5.423483
764.000000	5.625503
762.000000	5.877946
760.000000	6.175939
758.000000	6.528298
756.000000	6.920358
754.000000	7.354238
752.000000	7.830388
750.000000	8.346534
748.000000	8.900168
746.000000	9.481984
744.000000	10.092143
742.000000	10.732553
740.000000	11.391817
738.000000	12.076607
736.000000	12.763930
734.000000	13.460113
732.000000	14.166071
730.000000	14.876626
728.000000	15.587087
726.000000	16.285005
724.000000	16.968382
722.000000	17.638200
720.000000	18.303416
718.000000	18.949275
716.000000	19.563855
714.000000	20.148034
712.000000	20.701892
710.000000	21.223346
708.000000	21.718449
706.000000	22.177476
704.000000	22.591527
702.000000	22.959264
700.000000	23.283681
698.000000	23.565308
696.000000	23.799742
694.000000	23.980823
692.000000	24.106120
690.000000	24.180291
688.000000	24.200200
686.000000	24.165533
684.000000	24.074082
682.000000	23.923229
680.000000	23.712437
678.000000	23.443851
676.000000	23.107459
674.000000	22.710431
672.000000	22.253954
670.000000	21.732201
668.000000	21.150148
666.000000	20.514238
664.000000	19.820951
662.000000	19.068100
660.000000	18.266183
658.000000	17.415362
656.000000	16.517197
654.000000	15.585480
652.000000	14.623742
650.000000	13.636361
648.000000	12.641062
646.000000	11.651337
644.000000	10.678537
642.000000	9.732619
640.000000	8.827547
638.000000	7.981460
636.000000	7.216877
634.000000	6.549635
632.000000	5.995004
630.000000	5.566925
628.000000	5.280835
626.000000	5.151678
624.000000	5.186745
622.000000	5.391119
620.000000	5.768987
618.000000	6.314906
616.000000	7.019346
614.000000	7.875333
612.000000	8.869544
610.000000	9.987823
608.000000	11.205203
606.000000	12.494638
604.000000	13.841977
602.000000	15.223918
600.000000	16.624717
598.000000	18.018516
596.000000	19.379959
594.000000	20.693353
592.000000	21.947291
590.000000	23.131642
588.000000	24.226568
586.000000	25.215233
584.000000	26.086127
582.000000	26.842044
580.000000	27.470342
578.000000	27.962807
576.000000	28.316998
574.000000	28.519007
572.000000	28.577184
570.000000	28.482444
568.000000	28.227728
566.000000	27.817321
564.000000	27.237782
562.000000	26.496104
560.000000	25.556103
558.000000	24.458995
556.000000	23.215234
554.000000	21.826101
552.000000	20.310708
550.000000	18.672381
548.000000	16.956261
546.000000	15.185217
544.000000	13.409879
542.000000	11.688188
540.000000	10.061170
538.000000	8.593486
536.000000	7.346876
534.000000	6.375258
532.000000	5.713067
530.000000	5.379001
528.000000	5.377540
526.000000	5.686142
524.000000	6.264295
522.000000	7.052473
520.000000	7.983590
518.000000	8.978713
516.000000	9.965473
514.000000	10.881169
512.000000	11.686288
510.000000	12.356055
508.000000	12.900726
506.000000	13.361763
504.000000	13.850006
502.000000	14.556409
500.000000	15.731601
498.000000	17.697558
496.000000	20.768631
494.000000	25.160212
492.000000	30.907361
490.000000	37.732842
488.000000	45.095762
486.000000	52.418452
484.000000	59.149071
482.000000	64.951872
480.000000	69.789509
478.000000	73.562326
476.000000	76.584562
474.000000	78.969251
472.000000	80.786742
470.000000	82.157511
468.000000	83.185480
466.000000	83.975834
464.000000	84.576780
462.000000	84.985738
460.000000	85.315657
458.000000	85.559009
456.000000	85.716536
454.000000	85.816414
452.000000	85.881174
450.000000	85.881171
448.000000	85.912839
446.000000	85.939845
444.000000	85.911698
442.000000	85.843217
440.000000	85.821290
438.000000	85.746545
436.000000	85.678236
434.000000	85.606191
432.000000	85.531433
430.000000	85.421004
428.000000	85.325552
426.000000	85.248698
424.000000	85.179090
422.000000	85.055378
420.000000	84.919108
418.000000	84.835642
416.000000	84.700688
414.000000	84.598978
412.000000	84.441618
410.000000	84.291240
408.000000	84.196946
406.000000	84.041605
404.000000	83.824833
402.000000	83.656679
400.000000	83.461677
398.000000	83.263089
396.000000	83.026631
394.000000	82.711220
392.000000	82.418998
390.000000	82.034075
388.000000	81.658372
386.000000	81.243971
384.000000	80.776080
382.000000	80.177356
380.000000	79.525147
378.000000	78.668349
376.000000	77.384813
374.000000	75.495372
372.000000	72.956186
370.000000	69.238013
368.000000	61.836261
366.000000	51.122169
364.000000	41.245309
362.000000	39.436148
360.000000	46.019380
358.000000	53.662739
356.000000	58.653415
354.000000	60.035280
352.000000	59.559354
350.000000	57.408536
348.000000	53.936086
346.000000	48.986989
344.000000	43.583037
342.000000	38.315945
340.000000	34.533271
338.000000	32.536081
336.000000	31.706899
334.000000	31.073825
332.000000	30.008135
330.000000	28.194860
328.000000	26.300262
326.000000	23.985125
324.000000	21.826973
322.000000	19.868560
320.000000	17.672266
318.000000	15.774673
316.000000	14.297908
314.000000	12.699903
312.000000	11.287839
310.000000	10.000421
308.000000	8.889104
306.000000	7.932743
304.000000	7.106720
302.000000	6.429515
300.000000	5.817439
298.000000	5.328695
296.000000	4.886893
294.000000	4.545769
292.000000	4.224067
290.000000	3.975994
288.000000	3.732693
286.000000	3.537705
284.000000	3.385613
282.000000	3.269949
280.000000	3.182562
278.000000	3.104820
276.000000	3.061238
274.000000	3.016863
272.000000	3.005339
270.000000	2.982368
268.000000	2.982815
266.000000	2.980885
264.000000	2.988021
262.000000	2.987580
260.000000	2.991957
258.000000	2.995257
256.000000	2.994764
254.000000	3.009770
252.000000	3.015742
250.000000	3.024598
